File: crystallography/Input_XRD.txt
72.788 0.01938
72.792 0.01938
72.796 0.0323
72.8 0.03876
72.804 0.01292
72.808 0.05167
72.812 0.01938
72.816 0.0323
72.82 0.04521
72.824 0.05813
72.828 0.01938
72.832 0.03876
72.836 0.01938
72.84 0.05813
72.844 0.01938
72.848 0.04521
72.852 0.02584
72.856 0.05813
72.86 0.05813
72.864 0.04521
72.868 0.05167
72.872 0.03876
72.876 0.09043
72.88 0.04521
72.884 0.07751
72.888 0.05167
72.892 0.09043
72.896 0.07751
72.9 0.09043
72.904 0.08397
72.908 0.07105
72.912 0.04521
72.916 0.08397
72.92 0.12273
72.924 0.09689
72.928 0.14856
72.932 0.10335
72.936 0.15502
72.94 0.09043
72.944 0.10981
72.948 0.10335
72.952 0.04521
72.956 0.08397
72.96 0.05813
72.964 0.09689
72.968 0.04521
72.972 0.06459
72.976 0.02584
72.98 0.03876
72.984 0.09043
72.988 0.07105
72.992 0.12273
72.996 0.25191
73 0.28421
73.004 0.51676
73.008 0.51676
73.012 0.94311
73.016 1.0271
73.02 1.47287
73.024 1.74423
73.028 2.31928
73.032 2.52605
73.036 3.2692
73.04 4.0189
73.044 4.55537
73.048 5.62845
73.052 6.24264
73.056 6.83102
73.06 7.63933
73.064 8.90697
73.068 9.72848
73.072 10.91888
73.076 11.93477
73.08 12.65958
73.084 13.30681
73.088 14.34897
73.092 15.46253
73.096 15.77332
73.1 16.3043
73.104 17.69669
73.108 17.07493
73.112 17.24331
73.116 16.80294
73.12 16.78351
73.124 15.91577
73.128 15.74742
73.132 14.67914
73.136 13.93467
73.14 13.6175
73.144 11.883
73.148 10.90593
73.152 10.23308
73.156 8.59004
73.16 7.18667
73.164 6.31376
73.168 4.72989
73.172 4.08353
73.176 3.05594
73.18 2.29344
73.184 1.783
73.188 1.36304
73.192 1.04002
73.196 0.87206
73.2 0.86559
73.204 1.07232
73.208 1.55687
73.212 1.87345
73.216 2.11252
73.22 2.80392
73.224 3.41138
73.228 3.52771
73.232 3.81208
73.236 4.12877
73.24 4.44548
73.244 4.58769
73.248 4.76868
73.252 4.74928
73.256 4.43256
73.26 4.52952
73.264 3.98658
73.268 3.79268
73.272 3.1141
73.276 2.79746
73.28 2.41621
73.284 2.2482
73.288 1.66024
73.292 1.56979
73.296 1.60209
73.3 1.52456
73.304 1.26614
73.308 1.783
73.312 1.83468
73.316 1.99621
73.32 2.25466
73.324 2.78453
73.328 3.00424
73.332 3.28859
73.336 3.54709
73.34 3.6505
73.344 3.65696
73.348 3.78623
73.352 3.36614
73.356 3.13349
73.36 3.46954
73.364 3.02363
73.368 2.71991
73.372 2.30636
73.376 2.33221
73.38 2.21589
73.384 2.00913
73.388 2.1319
73.392 2.3839
73.396 2.39036
73.4 2.64883
73.404 2.87501
73.408 3.2692
73.412 3.30151
73.416 3.61172
73.42 3.85086
73.424 4.07707
73.428 4.54891
73.432 4.36792
73.436 4.75574
73.44 4.45841
73.444 3.92841
73.448 4.02536
73.452 4.04475
73.456 3.98012
73.46 3.8444
73.464 3.79914
73.468 4.14816
73.472 4.33561
73.476 4.67818
73.48 4.86564
73.484 5.46683
73.488 6.081
73.492 6.41722
73.496 7.34187
73.5 7.67166
73.504 8.13084
73.508 8.93932
73.512 9.07514
73.516 10.1231
73.52 10.5048
73.524 11.31356
73.528 12.98966
73.532 15.17765
73.536 19.03756
73.54 27.93188
73.544 49.61592
73.548 103.407
73.552 216.497
73.556 402.843
73.56 618.569
73.564 790.654
73.568 931.123
73.572 1050.34
73.576 1093.27
73.58 955.33
73.584 703.615
73.588 451.49
73.592 250.205
73.596 123.113
73.6 56.18679
73.604 24.40381
73.608 10.45304
73.612 5.03371
73.616 2.85562
73.62 1.70546
73.624 1.14339
73.628 0.86559
73.632 0.6718
73.636 0.478
73.64 0.32297
73.644 0.18086
73.648 0.23899
73.652 0.1744
73.656 0.15502
73.66 0.09689
73.664 0.1744
73.668 0.09689
73.672 0.10335
73.676 0.10335
73.68 0.07105
73.684 0.08397
73.688 0.08397
73.692 0.05167
73.696 0.08397
73.7 0.08397
73.704 0.06459
73.708 0.06459
73.712 0.03876
73.716 0.02584
73.72 0.05167
73.724 0.02584
73.728 0.09043
73.732 0.05813
73.736 0.03876
73.74 0.05167
73.744 0.04521
73.748 0.01938
73.752 0.03876
73.756 0.04521
73.76 0.03876
73.764 0.01292
73.768 0.03876
73.772 0.03876
73.776 0.05167
73.78 0.06459
73.784 0.05167
73.788 0.08397